#
# Table of values for several non-liner mobility related constants 
# for Tantalum at various temperatures and pressures
#
# Pressure     Temperature       deltaH_0         Peierls           alpha
#  (GPa)       (degree K)          (ev)            (GPa)
#
   0.000           1.000           1.079           0.324          0.99977005
   1.000           1.000           1.090           0.329          0.99977005
  10.000           1.000           1.182           0.371          0.99979001
  20.000           1.000           1.272           0.415          0.99979001
  30.000           1.000           1.354           0.458          0.99981004
  40.000           1.000           1.429           0.498          0.99981004
  50.000           1.000           1.499           0.538          0.99983001
  60.000           1.000           1.565           0.576          0.99983001
  70.000           1.000           1.628           0.614          0.99983001
  80.000           1.000           1.688           0.651          0.99983001
  90.000           1.000           1.747           0.688          0.99985003
 100.000           1.000           1.804           0.725          0.99985003

   0.000         300.000           1.079           0.324          0.97890353
   1.000         300.000           1.090           0.329          0.97906184
  10.000         300.000           1.182           0.371          0.98022968
  20.000         300.000           1.272           0.415          0.98125958
  30.000         300.000           1.354           0.458          0.98209178
  40.000         300.000           1.429           0.498          0.98278558
  50.000         300.000           1.499           0.538          0.98338044
  60.000         300.000           1.565           0.576          0.98389620
  70.000         300.000           1.628           0.614          0.98435247
  80.000         300.000           1.688           0.651          0.98476923
  90.000         300.000           1.747           0.688          0.98514634
 100.000         300.000           1.804           0.725          0.98550367

   0.000         400.000           1.079           0.324          0.97418016
   1.000         400.000           1.090           0.329          0.97435778
  10.000         400.000           1.182           0.371          0.97575992
  20.000         400.000           1.272           0.415          0.97698510
  30.000         400.000           1.354           0.458          0.97797376
  40.000         400.000           1.429           0.498          0.97880459
  50.000         400.000           1.499           0.538          0.97951698
  60.000         400.000           1.565           0.576          0.98013067
  70.000         400.000           1.628           0.614          0.98068517
  80.000         400.000           1.688           0.651          0.98120016
  90.000         400.000           1.747           0.688          0.98165584
 100.000         400.000           1.804           0.725          0.98207200

   0.000         600.000           1.079           0.324          0.96612358
   1.000         600.000           1.090           0.329          0.96633983
  10.000         600.000           1.182           0.371          0.96809030
  20.000         600.000           1.272           0.415          0.96960604
  30.000         600.000           1.354           0.458          0.97084707
  40.000         600.000           1.429           0.498          0.97189176
  50.000         600.000           1.499           0.538          0.97277915
  60.000         600.000           1.565           0.576          0.97356832
  70.000         600.000           1.628           0.614          0.97427887
  80.000         600.000           1.688           0.651          0.97493041
  90.000         600.000           1.747           0.688          0.97550315
 100.000         600.000           1.804           0.725          0.97605628

   0.000        1000.000           1.079           0.324          0.95358384
   1.000        1000.000           1.090           0.329          0.95385724
  10.000        1000.000           1.182           0.371          0.95600700
  20.000        1000.000           1.272           0.415          0.95790470
  30.000        1000.000           1.354           0.458          0.95947123
  40.000        1000.000           1.429           0.498          0.96078420
  50.000        1000.000           1.499           0.538          0.96194112
  60.000        1000.000           1.565           0.576          0.96296132
  70.000        1000.000           1.628           0.614          0.96388394
  80.000        1000.000           1.688           0.651          0.96470875
  90.000        1000.000           1.747           0.688          0.96547496
 100.000        1000.000           1.804           0.725          0.96618253
